IESNA:LM-63-2002
[TEST] 100721R1
[TESTDATE] 1/31/2008
[ISSUEDATE] 1/15/2014
[TESTLAB] ACUITY BRANDS LIGHTING GRANVILLE LAB
[TESTMETHOD] IES LM-46:2004
[MANUFAC] Lithonia Lighting
[LUMCAT] REVX 250M FWS A82/GL SCWA (CLEAR)
[LUMINAIRE] 2'X2' RECESSED SQUARE GENERAL AREA LIGHTING WITH FLUSH WHITE DOOR FRAME AND #8227 ACRYLIC LENS WITH TEMPERED GLASS OVERLAY
[LAMPCAT] MVR250/VBU/PA
[LAMP] 250W CLEAR PULSE-START METAL HALIDE
[BALLAST] 
[BALLASTCAT] 
[DISTRIBUTION] DIRECT, SC-0=2.08, SC-90=2.08
[_LAMPPOSITION] 0 , 0
[_LAMPTYPE] METAL HALIDE PULSE START (250W AND ABOVE)
[_LAMPWATTAGE] 250
[_LAMPLUMENS] 26300
[_MOUNTING] Recessed
[_FAMILY] REV
[_PRODUCTID] 31ff37c3-2959-4bcc-a2e4-0e6697a991d2
[_INFOLINK] http://www.lithonia.com/photometrics.aspx?fid=138175
[OTHER] FLAT STEEL DOOR; 8227 LENS W/TEMPERED GLASS; SPREAD RE-270
[_TERCAT] Highbay, Nonlinear                                
[_TER] 35
TILT=NONE
1  26300  1  37  5  1  1  2  2  0
1  1  282
0  2.5  5  7.5  10  12.5  15  17.5  20  22.5  25  27.5  30
32.5  35  37.5  40  42.5  45  47.5  50  52.5  55  57.5  60
62.5  65  67.5  70  72.5  75  77.5  80  82.5  85  87.5  90
0  22.5  45  67.5  90
5049.9  5050.2  5276.9  5609.8  5760.7  5573.8  5385.4  5337.9
5165.4  5167.4  5147.5  5343.5  5813.1  6660  7866.8  8337.1
8229.4  8012.8  7787.6  7360.7  6419  5193.2  3493.1  2297.9
1732.2  1300.2  947.2  659.8  443.4  311.3  232.4  180.2
140.8  107.3  76.7  47.8  18.7
5049.9  5036.8  5280.5  5788.9  6146.7  6150.2  6032.1  6063.3
5999.3  5839.6  5639.6  5492.2  5509.3  5933.1  6767  7393
7685.4  7535.8  7816.3  8168.8  7778.6  6525.6  4580.5  2783.1
1940.5  1472.9  1071.7  739.1  501.9  339.5  248.8  201.8
164.9  128.1  87.2  47.5  18.5
5049.9  5057.8  5383.2  6034.9  6534.9  6707  6420.1  5966.7
5663.7  5459  5353.1  5175.8  4910.9  4750.6  4840.2  4898.5
4966.1  4878.7  4806.1  5150.3  5475.3  4665  3328.7  2555.6
1889.8  1320.3  959.2  688  498.9  359.8  255.1  198.4  158.6
122  82  45  19.1
5049.9  5097  5472.2  5911  6316.7  6420.2  6358  6411.3
6384.8  6120.9  5839.3  5700  5815.2  6315.2  6852.2  7388.1
7734.5  7922.9  8013.3  7829.9  6967.4  5576  3943.2  2484.6
1826.5  1390.5  1019.4  726.5  492.3  341.8  252.7  196.2
154.9  119.2  82.2  48.7  22
5049.9  5124.5  5511.1  6015.1  6204.2  6061.6  5915.2  5843.7
5811.7  5722.3  5645.5  5811.3  6157.3  6849.1  7739.8  8114.7
8179.8  8340.7  8054.4  7031.3  5819.1  4809.2  3445.4  2379.2
1785.2  1345  981.2  680.5  479.4  351.6  265.8  217.9  182.8
148.1  109.2  64.3  25.3
