IESNA:LM-63-2002
[TEST] 100769R1
[TESTDATE] 1/31/2008
[ISSUEDATE] 1/15/2014
[TESTLAB] ACUITY BRANDS LIGHTING GRANVILLE LAB
[TESTMETHOD] IES LM-46:2004
[MANUFAC] Lithonia Lighting
[LUMCAT] REVX 250M FWS A82/GL SCWA (COATED)
[LUMINAIRE] 2'X2' RECESSED SQUARE GENERAL AREA LIGHTING WITH FLUSH WHITE DOOR FRAME AND #8227 ACRYLIC LENS WITH TEMPERED GLASS OVERLAY
[LAMPCAT] MVR250/C/VBU/PA
[LAMP] 250W COATED PULSE-START METAL HALIDE
[BALLAST] 
[BALLASTCAT] 
[DISTRIBUTION] DIRECT, SC-0=1.78, SC-90=1.77
[_LAMPPOSITION] 0 , 0
[_LAMPTYPE] METAL HALIDE PULSE START (250W AND ABOVE)
[_LAMPWATTAGE] 250
[_LAMPLUMENS] 21500
[_MOUNTING] Recessed
[_FAMILY] REV
[_PRODUCTID] 66522355-2135-4e68-81a2-90d28f770772
[_INFOLINK] http://www.lithonia.com/photometrics.aspx?fid=138175
[OTHER] FLAT STEEL DOOR; 8227 LENS W/TEMPERED GLASS; SPREAD RE-270
[_TERCAT] Highbay, Nonlinear                                
[_TER] 30
TILT=NONE
1  21500  1  37  5  1  1  2  2  0
1  1  282
0  2.5  5  7.5  10  12.5  15  17.5  20  22.5  25  27.5  30
32.5  35  37.5  40  42.5  45  47.5  50  52.5  55  57.5  60
62.5  65  67.5  70  72.5  75  77.5  80  82.5  85  87.5  90
0  22.5  45  67.5  90
5226.7  5261.4  5290.3  5350  5406.5  5387  5341.7  5241.1
5156.5  5094  5143.1  5318.5  5600.4  5980.1  6346.5  6490.8
6421.2  6144.3  5683.6  4978.3  4035.6  3098.3  2305.9  1727.8
1286.7  954.3  699.3  499  350.8  251.3  186.8  144.6  112.8
87.1  63.4  37.6  13.2
5226.7  5203.4  5214.9  5309.6  5392.8  5341.6  5309.3  5259.9
5167  5052.2  4985.6  5019.8  5176.9  5450.5  5808.3  6091.8
6265.6  6320.1  6217.2  5897.6  5182.4  4122.8  2986.1  2113.4
1512.9  1079.5  763.9  542.6  384.9  267.9  200  163.5  134.3
105.9  73.1  39.3  14.2
5226.7  5263.9  5290.6  5342.9  5379.6  5334.8  5259.2  5152.2
5026.8  4900.3  4778.5  4723.1  4678.7  4692.6  4811.1  4976.8
5171.1  5312.2  5313.4  5076.9  4460.5  3455.6  2556.3  1894.3
1389.6  1008.4  726.7  523.4  378.2  277  204.6  161.4  128.9
99.5  67.2  35.8  14.6
5226.7  5214.2  5253  5355.3  5465.6  5505.8  5516.5  5471.6
5395.7  5332.8  5277.6  5338.5  5589.4  5936.3  6293.8  6613.5
6749.8  6788.4  6471.4  5936.9  5097.9  4003.2  2890.4  2039.7
1476.1  1071.5  775  560.7  399.5  285  210.6  163.1  128.6
98.4  67.7  39.9  17.5
5226.7  5211.9  5251.4  5398.3  5562.6  5618  5607.9  5554.7
5486.8  5470.8  5512  5652.2  5896.5  6249.3  6509.7  6564
6415.8  6061.1  5495.5  4746.4  3904.1  3096.7  2355.9  1791.3
1351.5  1003.2  740.5  536.6  385  281.5  214.5  175.2  147.3
119.8  86.8  49.1  18.1
