IESNA:LM-63-2002
[TEST] 100574R1
[TESTDATE] 1/31/2008
[ISSUEDATE] 1/15/2014
[TESTLAB] ACUITY BRANDS LIGHTING GRANVILLE LAB
[TESTMETHOD] IES LM-46:2004
[MANUFAC] Lithonia Lighting
[LUMCAT] REVX 400M RW A82/GL SCWA (COATED)
[LUMINAIRE] 2'X2' RECESSED SQUARE GENERAL AREA LIGHTING WITH REGRESSED WHITE DOOR FRAME AND #8227 ACRYLIC LENS WITH TEMPERED GLASS OVERLAY
[LAMPCAT] MVR400/C/VBU/PA
[LAMP] 400W COATED PULSE-START METAL HALIDE
[BALLAST] 
[BALLASTCAT] 
[DISTRIBUTION] DIRECT, SC-0=1.69, SC-90=1.68
[_LAMPPOSITION] 0 , 0
[_LAMPTYPE] METAL HALIDE PULSE START (250W AND ABOVE)
[_LAMPWATTAGE] 400
[_LAMPLUMENS] 42000
[_MOUNTING] Recessed
[_FAMILY] REV
[_PRODUCTID] 0f63c068-6d49-4c0f-9f05-0bed0bf63ebb
[_INFOLINK] http://www.lithonia.com/photometrics.aspx?fid=138175
[OTHER] REGRESSED ALUMINUM DOOR; 8227 LENS W/TEMPERED GLASS; SPREAD RE-270
[_TERCAT] Highbay, Nonlinear                                
[_TER] 39
TILT=NONE
1  42000  1  37  5  1  1  2  2  0
1  1  442
0  2.5  5  7.5  10  12.5  15  17.5  20  22.5  25  27.5  30
32.5  35  37.5  40  42.5  45  47.5  50  52.5  55  57.5  60
62.5  65  67.5  70  72.5  75  77.5  80  82.5  85  87.5  90
0  22.5  45  67.5  90
10923.3  10971.6  11035.2  11084.2  11101.6  11104.3  11141.9
11142.6  11169.9  11189.1  11377.3  11612  12102.7  12495.8
12750.8  12688.3  12266.5  11582.4  10462.4  8946.8  7059.2
5386.4  4089  3138.8  2416.7  1864.6  1408.1  1001.7  686.1
481  353.8  272.7  214.1  164.7  115.9  53.7  5.6
10923.3  10949.9  11032.9  11059.7  11111  11072.3  11129.7
11184.9  11188.2  11132  11277.5  11524.3  11934.6  12452.5
12785.1  13039.2  12982.4  12702.3  12060.4  11001.2  9422.3
7609.2  5708.8  4056.6  2828.7  1964.3  1404.1  981  673.5
464.5  347.9  284.1  232  179.1  116.4  47  4.9
10923.3  10969.2  11020.4  11057.8  11152.2  11129.2  11226.7
11144.5  11073.2  10916.5  10766.6  10710.5  10778  10949.3
11187.2  11527.8  11730.8  11622.1  10941.2  9804.1  8214.5
6487.9  4939.5  3665.2  2698  1957.6  1415.6  1000  705.3
500.9  362.3  281.6  225  171.9  112.2  47.1  6.8
10923.3  10921.4  11020.2  11106.1  11227.7  11379.5  11497.3
11575.5  11552.6  11513.6  11492.4  11633.6  11888.7  12243.5
12609.8  12776.6  12696.6  12527.8  12169.8  11161.8  9545
7654.1  5762.5  4176.1  2934.3  2086.4  1488.6  1076  744.5
517.9  375.8  283.2  218.5  164.5  110.9  48.7  6.3
10923.3  10960.2  11042.5  11191.2  11375.6  11650.3  11632.1
11689.9  11621.3  11622.6  11680.5  11841.3  12193.7  12527.5
12807.5  12597.3  12177.9  11374.5  10385.1  8893.5  7051
5466.6  4195.6  3237.6  2487.8  1879.8  1389  996.6  679.6
461.9  353.3  291.3  244.5  192.4  127.5  50.9  6.1
