IESNA:LM-63-2002
[TEST] 100573R1
[TESTDATE] 1/31/2008
[ISSUEDATE] 1/15/2014
[TESTLAB] ACUITY BRANDS LIGHTING GRANVILLE LAB
[TESTMETHOD] IES LM-46:2004
[MANUFAC] Lithonia Lighting
[LUMCAT] REVX 400M FWS A82/GL SCWA (COATED)
[LUMINAIRE] 2'X2' RECESSED SQUARE GENERAL AREA LIGHTING WITH FLUSH WHITE DOOR FRAME AND #8227 ACRYLIC LENS WITH TEMPERED GLASS OVERLAY
[LAMPCAT] MVR400/C/VBU/PA
[LAMP] 400W COATED PULSE-START METAL HALIDE
[BALLAST] 
[BALLASTCAT] 
[DISTRIBUTION] DIRECT, SC-0=1.67, SC-90=1.67
[_LAMPPOSITION] 0 , 0
[_LAMPTYPE] METAL HALIDE PULSE START (250W AND ABOVE)
[_LAMPWATTAGE] 400
[_LAMPLUMENS] 42000
[_MOUNTING] Recessed
[_FAMILY] REV
[_PRODUCTID] 3ad1253d-6024-4e0e-88f9-70d597965b2b
[_INFOLINK] http://www.lithonia.com/photometrics.aspx?fid=138175
[OTHER] FLAT STEEL DOOR; 8227 LENS W/TEMPERED GLASS; SPREAD RE-270
[_TERCAT] Highbay, Nonlinear                                
[_TER] 39
TILT=NONE
1  42000  1  37  5  1  1  2  2  0
1  1  442
0  2.5  5  7.5  10  12.5  15  17.5  20  22.5  25  27.5  30
32.5  35  37.5  40  42.5  45  47.5  50  52.5  55  57.5  60
62.5  65  67.5  70  72.5  75  77.5  80  82.5  85  87.5  90
0  22.5  45  67.5  90
10965.9  10970.4  10981.1  11005.8  11178.3  11169.8  11122.8
11100.6  10997.1  11034.2  11118.7  11343.7  11715.7  12078.4
12469.6  12405  12044  11426.9  10463  9173.1  7346  5598.4
4260.6  3235.9  2473.8  1845  1348.2  965.5  678  491.8
366.5  284  223.7  173.7  127.4  75.4  24.6
10965.9  10921.7  10980.7  11036.6  11142.4  10999  10942.8
10904.1  10847.9  10886.2  10974.3  11229  11619.7  12153.4
12595.1  12787.7  12764.2  12462.1  11929.9  11045.4  9381.6
7439.4  5510.2  3991.5  2880.7  2023.2  1430.8  1033.2  743.4
526.6  386.9  311  252.7  195.9  133.6  70  24.4
10965.9  10933.3  10918.3  11032.9  11121.1  11026  10981
10822.9  10666.5  10603.3  10437.2  10495.1  10593.5  10681.5
10888.6  11155.1  11371.7  11344.3  11009.6  9944.5  8424.2
6610.2  4946.4  3693  2723.9  1967.2  1416.7  1014.3  731.2
531.6  392.5  312.4  250.6  194.8  133.4  70.3  27.4
10965.9  10970  11028.4  11156.8  11276.7  11391.3  11419
11403.3  11268.4  11143.5  11062.7  11166.3  11411.1  11683.3
12054.6  12346.1  12454.1  12295.2  11795.4  10902.8  9370.6
7446.5  5592.2  4111.3  2953.6  2116.3  1514.4  1097.7  780
550.4  402  308.7  242.5  187.8  132.9  77.6  33.3
10965.9  10990  11005  11222.7  11497.3  11658.7  11526.1
11493.7  11388  11416.2  11519.5  11650.2  11966  12259.8
12614.6  12508  12139.6  11425.9  10353.5  9108.3  7371.6
5739.2  4345  3351.6  2542.7  1892.8  1401.9  1017.2  735.2
536.1  409.6  340.9  288.8  236.4  171.8  97.1  35.3
