IESNA:LM-63-2002
[TEST] 100762R1
[TESTDATE] 1/31/2008
[ISSUEDATE] 1/15/2014
[TESTLAB] ACUITY BRANDS LIGHTING GRANVILLE LAB
[TESTMETHOD] IES LM-46:2004
[MANUFAC] Lithonia Lighting
[LUMCAT] REVX 250M FWS T73 SCWA (COATED)
[LUMINAIRE] 2'X2' RECESSED SQUARE GENERAL AREA LIGHTING WITH FLUSH WHITE DOOR FRAME AND #T73 TEMPERED GLASS LENS
[LAMPCAT] MVR250/C/VBU/PA
[LAMP] 250W COATED PULSE-START METAL HALIDE
[BALLAST] 
[BALLASTCAT] 
[DISTRIBUTION] DIRECT, SC-0=1.77, SC-90=1.74
[_LAMPPOSITION] 0 , 0
[_LAMPTYPE] METAL HALIDE PULSE START (250W AND ABOVE)
[_LAMPWATTAGE] 250
[_LAMPLUMENS] 21500
[_MOUNTING] Recessed
[_FAMILY] REV
[_PRODUCTID] 5408f973-f934-4f5c-a826-97062d2af320
[_INFOLINK] http://www.lithonia.com/photometrics.aspx?fid=138175
[OTHER] FLAT STEEL DOOR; CORNING 73 GLASS LENS; SPREAD RE-270
[_TERCAT] Highbay, Nonlinear                                
[_TER] 31
TILT=NONE
1  21500  1  37  5  1  1  2  2  0
1  1  282
0  2.5  5  7.5  10  12.5  15  17.5  20  22.5  25  27.5  30
32.5  35  37.5  40  42.5  45  47.5  50  52.5  55  57.5  60
62.5  65  67.5  70  72.5  75  77.5  80  82.5  85  87.5  90
0  22.5  45  67.5  90
5073.1  5063.9  5048.4  5023.4  5009.8  5003.3  5033.6  5137.5
5317  5561.8  5850.1  6135.3  6420.2  6650.2  6758.9  6694
6371  5816.8  5139.9  4443.8  3792.6  3174.1  2614  2146.6
1783  1499.5  1267.6  1094.5  950.2  820  704.4  597.1  491
374  236.2  96.2  10.7
5073.1  5084.8  5068.4  5044.7  5012.7  4992.8  4987.8  5027.3
5132.9  5323.9  5558.5  5805.1  6070.4  6331.1  6501.5  6514.9
6270.6  5746.5  5042.2  4373.1  3783.9  3237.2  2722.3  2250.1
1834.3  1499.6  1240.8  1072.6  952.5  839.6  718.5  594.2
473.8  349.8  223.7  98.5  10.5
5073.1  5063.2  5048.9  5043.2  5015.5  4990.3  4985  5009.9
5090.8  5231  5430.3  5659.5  5903.7  6143  6298.3  6304.7
6106.9  5689.1  5114.5  4489.1  3914.9  3405.4  2932  2478.2
2048.1  1658.6  1333.9  1105.8  946.8  828  714.8  596.2
473.4  350.1  222  98.5  8.1
5073.1  5066.8  5060.1  5049.7  5047.1  5053.1  5101  5221.9
5414.1  5655.2  5913  6177.5  6419.2  6607.1  6685.4  6560.4
6141.3  5511.9  4784.3  4114.1  3479.4  2896.2  2403.1  2016.5
1730.9  1504.2  1293.2  1090.3  910.6  776.6  679.7  587.5
474.4  351.2  229.3  100.9  10.2
5073.1  5081.2  5071.3  5061.3  5065.1  5096.6  5189.7  5370.1
5631  5935.4  6242.4  6515.1  6738.8  6877.2  6863.5  6626.9
6170.2  5502  4731.7  3966.8  3290  2760.8  2317.5  2009.8
1770.8  1519.7  1246.5  1023.3  877.8  777.1  690.4  586.8
467.2  346.5  227.2  93.4  7.4
