IESNA:LM-63-2002
[TEST] 100770R1
[TESTDATE] 1/31/2008
[ISSUEDATE] 1/15/2014
[TESTLAB] ACUITY BRANDS LIGHTING GRANVILLE LAB
[TESTMETHOD] IES LM-46:2004
[MANUFAC] Lithonia Lighting
[LUMCAT] REVX 250M RW A82/GL SCWA (COATED)
[LUMINAIRE] 2'X2' RECESSED SQUARE GENERAL AREA LIGHTING WITH REGRESSED WHITE DOOR FRAME AND #8227 ACRYLIC LENS WITH TEMPERED GLASS OVERLAY
[LAMPCAT] MVR250/C/VBU/PA
[LAMP] 250W COATED PULSE-START METAL HALIDE
[BALLAST] 
[BALLASTCAT] 
[DISTRIBUTION] DIRECT, SC-0=1.79, SC-90=1.77
[_LAMPPOSITION] 0 , 0
[_LAMPTYPE] METAL HALIDE PULSE START (250W AND ABOVE)
[_LAMPWATTAGE] 250
[_LAMPLUMENS] 21500
[_MOUNTING] Recessed
[_FAMILY] REV
[_PRODUCTID] e4cf721d-e01e-457b-801c-0b1133bfc84f
[_INFOLINK] http://www.lithonia.com/photometrics.aspx?fid=138175
[OTHER] REGRESSED ALUMINUM DOOR; 8227 LENS W/TEMPERED GLASS; SPREAD RE-270
[_TERCAT] Highbay, Nonlinear                                
[_TER] 30
TILT=NONE
1  21500  1  37  5  1  1  2  2  0
1  1  282
0  2.5  5  7.5  10  12.5  15  17.5  20  22.5  25  27.5  30
32.5  35  37.5  40  42.5  45  47.5  50  52.5  55  57.5  60
62.5  65  67.5  70  72.5  75  77.5  80  82.5  85  87.5  90
0  22.5  45  67.5  90
5144.7  5105.3  5181.7  5250.3  5298.7  5324.1  5346.4  5339.8
5278.9  5239.7  5276  5451.7  5748.9  6127.9  6474.8  6630
6491  6123.4  5579.2  4823.1  3863.7  2987.3  2254.6  1696.1
1284.6  975.4  729.1  524.3  364.3  254.9  183.6  138.6
108.1  82.5  57.1  29.9  6.6
5144.7  5090.1  5158.8  5239.7  5327.5  5357.6  5382.9  5381.5
5310.9  5216.6  5117.1  5131.5  5295.2  5545.9  5869.2  6119.2
6255.7  6328.6  6229.8  5904.4  5271.7  4327.3  3214.8  2228.7
1543  1067.7  752.3  530.8  367.3  249.4  180.4  145  118.8
93  61.7  29.2  6
5144.7  5212.3  5293.8  5351.6  5361.2  5369.2  5306.5  5218.3
5097.5  4947.3  4825  4765.1  4718.8  4722.5  4867.3  5102.3
5344.3  5494  5447.3  5117  4454.8  3461.1  2607.1  1940.1
1407.2  1022.8  747.4  539.3  380  271.2  196.4  144.5  112.4
84.5  56  26.8  7.4
5144.7  5235.7  5258.9  5311.9  5402.4  5472.2  5507.8  5478.7
5410.6  5348.6  5307.2  5435.1  5745.9  6107.7  6478.8  6720.7
6755  6733.2  6476.5  5981.6  5181.1  4091.8  2970.3  2070.9
1458  1053  760.2  544.4  384.9  272.7  197.9  146.3  112.1
83.9  55.7  27.2  7.2
5144.7  5095.1  5170.8  5303.6  5469.2  5595.4  5608.7  5582.5
5506.8  5443.3  5491.9  5702.9  6053.9  6406.2  6633.6  6581.1
6331.7  5947.8  5415.4  4623  3714.8  2946.6  2256  1712.8
1300.3  971.8  715.6  524.9  370.5  253.6  185.6  150.3
122.9  96.1  65  30.6  5.7
