IESNA:LM-63-2002
[TEST] 100570R1
[TESTDATE] 1/31/2008
[ISSUEDATE] 1/15/2014
[TESTLAB] ACUITY BRANDS LIGHTING GRANVILLE LAB
[TESTMETHOD] IES LM-46:2004
[MANUFAC] Lithonia Lighting
[LUMCAT] REVX 400M FWS T73 SCWA (COATED)
[LUMINAIRE] 2'X2' RECESSED SQUARE GENERAL AREA LIGHTING WITH FLUSH WHITE DOOR FRAME AND #T73 TEMPERED GLASS LENS
[LAMPCAT] MVR400/C/VBU/PA
[LAMP] 400W COATED PULSE-START METAL HALIDE
[BALLAST] 
[BALLASTCAT] 
[DISTRIBUTION] DIRECT, SC-0=1.67, SC-90=1.64
[_LAMPPOSITION] 0 , 0
[_LAMPTYPE] METAL HALIDE PULSE START (250W AND ABOVE)
[_LAMPWATTAGE] 400
[_LAMPLUMENS] 42000
[_MOUNTING] Recessed
[_FAMILY] REV
[_PRODUCTID] 92ee2b1d-e488-4f3b-add3-5c78b7188abe
[_INFOLINK] http://www.lithonia.com/photometrics.aspx?fid=138175
[OTHER] FLAT STEEL DOOR; CORNING 73 GLASS LENS; TASK RE-274
[_TERCAT] Highbay, Nonlinear                                
[_TER] 40
TILT=NONE
1  42000  1  37  5  1  1  2  2  0
1  1  442
0  2.5  5  7.5  10  12.5  15  17.5  20  22.5  25  27.5  30
32.5  35  37.5  40  42.5  45  47.5  50  52.5  55  57.5  60
62.5  65  67.5  70  72.5  75  77.5  80  82.5  85  87.5  90
0  22.5  45  67.5  90
10769.9  10832.6  10895.5  10961.3  11033.6  11127.4  11262
11447.7  11692.7  11982.4  12294.4  12636.2  12910.8  13065.7
13024.1  12648.7  11910.5  10882.5  9661.2  8413.5  7201.7
6027.2  4962.5  4065.8  3364.8  2838.3  2421.2  2095.6  1821.2
1575.4  1357.5  1154.6  946.9  711.7  445.6  179.9  18.4
10769.9  10765.4  10774.5  10790.9  10815.7  10853.2  10954.5
11134.5  11390  11717.1  12080.4  12428.7  12730.9  12930.5
12949.1  12704.5  12074  11034.5  9746.5  8449.2  7284.8
6211.7  5190.8  4276.1  3492.9  2848.6  2360.8  2040.9  1798.4
1589.9  1378.8  1160.1  933.9  689.9  437.9  182.6  12.3
10769.9  10751.6  10765.3  10780.8  10798.2  10834.4  10914.2
11043.9  11250.6  11546.9  11883.4  12232.1  12526.4  12723.7
12752  12489.7  11918.7  11042.2  9895.6  8659.3  7508.8
6520.6  5662.4  4841.2  4038.5  3270.3  2616.7  2134.3  1795.7
1560.2  1368.8  1159.8  914.9  662.4  413.9  171.9  23.1
10769.9  10756  10764.1  10783.7  10821.9  10892.4  11027.9
11245.1  11520.2  11858  12208.4  12557.7  12848.5  13005.9
12993.8  12710.9  11997.7  10876.2  9558.2  8232.2  6977.8
5790.5  4759.9  3939.1  3340.5  2879.6  2492.6  2129  1795.1
1525.1  1333.5  1150.4  930.1  682.4  437.3  185.7  16.9
10769.9  10762.3  10777.9  10801.1  10849.2  10961  11150.2
11430.5  11765.5  12133.1  12488.6  12779.3  12945.6  13016.3
12855.6  12321.6  11454.3  10326.2  8997.5  7591.4  6303.3
5226.6  4434.6  3857.6  3399.1  2907  2387.8  1958.1  1683.4
1496.8  1332.6  1136  901.7  666.9  428.8  167.6  18.6
