IESNA:LM-63-2002
[TEST] 100702R1
[TESTDATE] 1/31/2008
[ISSUEDATE] 1/15/2014
[TESTLAB] ACUITY BRANDS LIGHTING GRANVILLE LAB
[TESTMETHOD] IES LM-46:2004
[MANUFAC] Lithonia Lighting
[LUMCAT] REVX 175M RW T73 SCWA (COATED)
[LUMINAIRE] 2'X2' RECESSED SQUARE GENERAL AREA LIGHTING WITH REGRESSED WHITE DOOR FRAME AND #T73 TEMPERED GLASS LENS
[LAMPCAT] MXR175/C/VBU/PA
[LAMP] 175W COATED PULSE-START METAL HALIDE
[BALLAST] 
[BALLASTCAT] 
[DISTRIBUTION] DIRECT, SC-0=1.8, SC-90=1.74
[_LAMPPOSITION] 0 , 0
[_LAMPTYPE] METAL HALIDE PULSE START (BELOW 250W)
[_LAMPWATTAGE] 175
[_LAMPLUMENS] 16000
[_MOUNTING] Recessed
[_FAMILY] REV
[_PRODUCTID] 16fe3a51-4412-4d9e-83c6-32c69c478175
[_INFOLINK] http://www.lithonia.com/photometrics.aspx?fid=138175
[OTHER] REGRESSED ALUMINUM DOOR; CORNING 73 GLASS LENS; SPREAD RE-270
[_TERCAT] Highbay, Nonlinear                                
[_TER] 34
TILT=NONE
1  16000  1  37  5  1  1  2  2  0
1  1  198
0  2.5  5  7.5  10  12.5  15  17.5  20  22.5  25  27.5  30
32.5  35  37.5  40  42.5  45  47.5  50  52.5  55  57.5  60
62.5  65  67.5  70  72.5  75  77.5  80  82.5  85  87.5  90
0  22.5  45  67.5  90
3913.8  3905.6  3878.8  3831.9  3784.7  3748.7  3742.5  3781.5
3894.3  4077.5  4312.6  4568.9  4817.5  5032.7  5179.8  5194.2
5039.2  4693.3  4196.3  3649.3  3117.1  2614.7  2167.5  1784.5
1470.8  1220.5  1018  852.7  724.7  617.8  520.2  437.5
350.4  253.5  141  35.7  2.3
3913.8  3918.4  3891.8  3845.8  3787  3731  3699.2  3694.9
3745.5  3847.7  4014.4  4216.5  4440.3  4662.1  4836.8  4927.2
4853.3  4536.7  4038.3  3499.9  2999.6  2554.7  2152.1  1795.2
1481.8  1213.4  994.4  842.2  736.8  640.4  540.9  439.8
339.9  240.4  139  39.8  3.4
3913.8  3916.6  3893.2  3845.8  3780.2  3707.4  3652.3  3632.9
3658.4  3732.2  3845.3  4018.2  4210.5  4430.4  4634.8  4734
4661  4412.4  3999.6  3525.6  3080.3  2680.2  2288.8  1906.4
1560.9  1264.3  1023.2  843.7  728  639.4  539.6  432.3
335.3  240.2  137.9  41.1  2.3
3913.8  3904.8  3887.5  3841.8  3786.9  3745.8  3746.7  3804.7
3924.4  4108.5  4327.1  4565.5  4793.8  5001.6  5137.9  5117.1
4837.4  4340.9  3718.9  3134.2  2626.1  2193.4  1838.2  1579.6
1388.6  1193.5  979.1  793.9  667.5  585.2  519.4  438.7
342.1  246.7  147.8  42.7  2.5
3913.8  3905.5  3885.7  3847.7  3804.9  3790.7  3830  3950.7
4158.4  4426.8  4714.6  4981.8  5215.8  5377.8  5387.5  5201.5
4806.9  4222.2  3561.8  2945.4  2434  2076.4  1819.3  1604.8
1396.9  1140.9  899.2  739.8  653.5  586.2  505.9  416.2
330.3  243.1  139.9  35.3  2.6
