IESNA:LM-63-2002
[TEST] 100558R1
[TESTDATE] 1/31/2008
[ISSUEDATE] 1/15/2014
[TESTLAB] ACUITY BRANDS LIGHTING GRANVILLE LAB
[TESTMETHOD] IES LM-46:2004
[MANUFAC] Lithonia Lighting
[LUMCAT] REVX 400M FWS T73 SCWA (CLEAR)
[LUMINAIRE] 2'X2' RECESSED SQUARE GENERAL AREA LIGHTING WITH FLUSH WHITE DOOR FRAME AND #T73 TEMPERED GLASS LENS
[LAMPCAT] MVR400/VBU/PA
[LAMP] 400W CLEAR PULSE-START METAL HALIDE
[BALLAST] 
[BALLASTCAT] 
[DISTRIBUTION] DIRECT, SC-0=1.89, SC-90=1.9
[_LAMPPOSITION] 0 , 0
[_LAMPTYPE] METAL HALIDE PULSE START (250W AND ABOVE)
[_LAMPWATTAGE] 400
[_LAMPLUMENS] 44000
[_MOUNTING] Recessed
[_FAMILY] REV
[_PRODUCTID] eb1946e7-cd53-4584-90ec-f533f5bed2bf
[_INFOLINK] http://www.lithonia.com/photometrics.aspx?fid=138175
[OTHER] FLAT STEEL DOOR; CORNING 73 GLASS LENS; SPREAD RE-270
[_TERCAT] Highbay, Nonlinear                                
[_TER] 40
TILT=NONE
1  44000  1  37  5  1  1  2  2  0
1  1  442
0  2.5  5  7.5  10  12.5  15  17.5  20  22.5  25  27.5  30
32.5  35  37.5  40  42.5  45  47.5  50  52.5  55  57.5  60
62.5  65  67.5  70  72.5  75  77.5  80  82.5  85  87.5  90
0  22.5  45  67.5  90
8954.6  9055.6  9180.4  9286.1  9407.7  9529.4  9674.1  9884.2
10233.3  10730.6  11678.6  12427.1  13412.5  14275.5  14486.9
14565.3  13704.5  12192.8  10732.4  9164.2  7749.7  6569.3
5396.2  4442.7  3724.8  3117.6  2649.1  2301.6  1985.9  1712.9
1470.2  1245.5  1026.1  772.6  479  189.5  12.1
8954.6  8945.9  8992.5  9007.5  8980.5  8944.1  8954.5  9069.2
9409.8  9968.1  10712.6  11490  12187.3  12919.9  13449.9
13641.1  13291.1  11952.8  10409  9062.1  7839.7  6729.3
5641.4  4688.7  3851.6  3137.3  2589.6  2231.4  1968.5  1740.6
1509  1273.8  1026  760.9  483.9  204.8  13.8
8954.6  8937.6  8964  8989.2  8938.1  8942.3  8877  8963.8
9090.9  9565.5  10138.1  10619.5  11138.3  11825.6  12802.2
13201.7  13058.2  12446.4  11159.3  9776.1  8464.5  7325.7
6326.7  5347.2  4456.2  3557.7  2841.6  2310.6  1945.8  1696.8
1488.3  1275.5  998.1  728.3  453.2  187.9  21.5
8954.6  8949  8950.3  8926.3  8972.6  8949.8  9107.6  9497.4
10247.1  11098.9  11900.4  12644.8  13561  14051.3  14701.8
14778.3  13896  12379.6  10618.6  9157.6  7665  6367.7  5288.2
4353.8  3740.8  3225.6  2783.4  2364.8  1971.8  1681.4  1450.2
1262.8  1025.2  746.6  479.1  205  14.1
8954.6  8906.6  8974.6  8888.7  8949.2  9020.6  9311.5  9974.8
10795.4  12037.2  13058.1  13907.5  14724.8  15188.6  15663
15024.7  14052.3  12334.7  10539.8  8758.9  7231.8  6059.7
5101.2  4462.7  3936.6  3339.7  2714.2  2212.4  1897.8  1664
1479.6  1275.3  1007.8  743.5  484.1  198  20.5
