IESNA:LM-63-2002
[TEST] 100560R1
[TESTDATE] 1/31/2008
[ISSUEDATE] 1/15/2014
[TESTLAB] ACUITY BRANDS LIGHTING GRANVILLE LAB
[TESTMETHOD] IES LM-46:2004
[MANUFAC] Lithonia Lighting
[LUMCAT] REVX 400M FWS T73/PCL SCWA (CLEAR)
[LUMINAIRE] 2'X2' RECESSED SQUARE GENERAL AREA LIGHTING WITH FLUSH WHITE DOOR FRAME AND #T73 POLYCARBONATE LENS WITH TEMPERED GLASS OVERLAY
[LAMPCAT] MVR400/VBU/PA
[LAMP] 400W CLEAR PULSE-START METAL HALIDE
[BALLAST] 
[BALLASTCAT] 
[DISTRIBUTION] DIRECT, SC-0=1.84, SC-90=1.84
[_LAMPPOSITION] 0 , 0
[_LAMPTYPE] METAL HALIDE PULSE START (250W AND ABOVE)
[_LAMPWATTAGE] 400
[_LAMPLUMENS] 44000
[_MOUNTING] Recessed
[_FAMILY] REV
[_PRODUCTID] afe87bfe-6f01-4fa6-bb9b-e55d886767af
[_INFOLINK] http://www.lithonia.com/photometrics.aspx?fid=138175
[OTHER] FLAT STEEL DOOR W/POLYCARBONATE SHIELD; CORNING 73 GLASS LENS; SPREAD RE-270
[_TERCAT] Highbay, Nonlinear                                
[_TER] 38
TILT=NONE
1  44000  1  37  5  1  1  2  2  0
1  1  442
0  2.5  5  7.5  10  12.5  15  17.5  20  22.5  25  27.5  30
32.5  35  37.5  40  42.5  45  47.5  50  52.5  55  57.5  60
62.5  65  67.5  70  72.5  75  77.5  80  82.5  85  87.5  90
0  22.5  45  67.5  90
8774.5  8870.4  8949.7  9034.7  9104.4  9204  9332.2  9492.1
9754.5  10192.2  10641.8  11173.6  11719  12127.7  12497.7
12593.6  12380.4  11070.7  9764.9  8391.7  7241.7  6046.5
5104.9  4217.2  3525.7  2950  2459.5  2053.3  1694  1365.9
1057.8  785.9  531.4  310.6  133.9  37  7.8
8774.5  8754.3  8781.6  8852.6  8743.8  8788.6  8812.3  8917
9171.1  9673.8  10241  10837.1  11548.6  12047.4  12458.3
12517  12025.1  10842.7  9483.5  8322.6  7236.9  6222.5
5278.4  4400  3623  2953.7  2423.3  2022.9  1681.8  1383.8
1083  798  532.7  307.8  137.7  40.7  5.1
8774.5  8786.4  8798.9  8820.5  8856.9  8739.1  8733.7  8793.4
8974.6  9332.7  9746.2  10267.7  10621.5  11270  12065.4
12422.2  12167.4  11398.3  10422.6  9078.9  7871.1  6847.8
5877.7  4982.2  4083.4  3321.5  2631.3  2094.6  1705.4  1380.5
1095.6  808  542.3  309.1  136  39  6.5
8774.5  8773.6  8807  8812.3  8888.4  8863.6  9045.9  9290
9865.5  10631.3  11293.4  12025.4  12522.6  13266.3  13543.5
13446.3  12631  11149.8  9722  8305.7  7163.5  5982.5  4950
4178.1  3505.6  2987.9  2484.5  2080.5  1675.2  1318.8  1046.4
777.4  521.4  294.8  134.1  38.8  4.5
8774.5  8719.8  8833  8775.9  8795.2  8939.6  9228.3  9587.5
10529.8  11389.5  12393.2  13040.6  13767  14252.3  14151.5
13852.4  12708.9  11099.8  9530.3  8022.1  6666.7  5575.7
4771.9  4120.4  3599.7  3034.3  2475.4  2000.7  1606.9  1318.2
1043.1  773.1  518.8  295.9  130  34.4  6.1
