IESNA:LM-63-2002
[TEST] 100561R1
[TESTDATE] 1/31/2008
[ISSUEDATE] 1/15/2014
[TESTLAB] ACUITY BRANDS LIGHTING GRANVILLE LAB
[TESTMETHOD] IES LM-46:2004
[MANUFAC] Lithonia Lighting
[LUMCAT] REVX 400M FWS A82/GL SCWA (CLEAR)
[LUMINAIRE] 2'X2' RECESSED SQUARE GENERAL AREA LIGHTING WITH FLUSH WHITE DOOR FRAME AND #8227 ACRYLIC LENS WITH TEMPERED GLASS OVERLAY
[LAMPCAT] MVR400/VBU/PA
[LAMP] 400W CLEAR PULSE-START METAL HALIDE
[BALLAST] 
[BALLASTCAT] 
[DISTRIBUTION] DIRECT, SC-0=1.92, SC-90=1.96
[_LAMPPOSITION] 0 , 0
[_LAMPTYPE] METAL HALIDE PULSE START (250W AND ABOVE)
[_LAMPWATTAGE] 400
[_LAMPLUMENS] 44000
[_MOUNTING] Recessed
[_FAMILY] REV
[_PRODUCTID] e5418eaf-acc3-4acb-9b35-96b777dc1273
[_INFOLINK] http://www.lithonia.com/photometrics.aspx?fid=138175
[OTHER] FLAT STEEL DOOR; 8227 LENS W/TEMPERED GLASS; SPREAD RE-270
[_TERCAT] Highbay, Nonlinear                                
[_TER] 39
TILT=NONE
1  44000  1  37  5  1  1  2  2  0
1  1  442
0  2.5  5  7.5  10  12.5  15  17.5  20  22.5  25  27.5  30
32.5  35  37.5  40  42.5  45  47.5  50  52.5  55  57.5  60
62.5  65  67.5  70  72.5  75  77.5  80  82.5  85  87.5  90
0  22.5  45  67.5  90
9426.1  9486.4  9499.6  9540  9624.4  9608.2  9692.4  9853.2
10138.1  10267.9  10469  10702.4  11091.4  11587.3  12380.8
13073  13148.8  12960.3  12243.6  10518.2  8686  6767.6
4665.2  3379.8  2602.9  1959.7  1433.5  1022.6  699.8  503
376.7  296.6  228.9  179.1  128.5  78.2  26.3
9426.1  9389.3  9448.1  9634.1  9791.6  9666.2  9688.4  9771.7
9978  10024.9  9952.2  9814.6  10344.2  11521.5  12742.7
13751.5  13989.2  13859.4  13610.9  12866.5  11259.5  8789.5
5971.5  3945.6  2936.6  2176  1557.5  1083.3  766.7  536.1
398.3  323.2  264.8  202.6  137  73.1  24.7
9426.1  9428.3  9709.5  10087.6  10366  10328.6  9943.2
9527.9  9242.4  9084.6  8953.7  8889.4  8577.7  8451.7  8821.3
9180.9  8958.6  8660.5  8999.5  9832.5  9692  7300.7  5309
4124.1  3048.2  2158.6  1529.8  1107.2  794  563.2  413.7
325.9  265.7  202.7  139.1  73.8  27.8
9426.1  9423  9881.8  10363.1  10745  10710.9  10453.1  10114.5
9963.3  9961.1  9864.3  9909.3  10393.4  11736.3  13054.6
13650.7  14107  14478.2  14546.2  13865.8  11663.6  8461.2
5704.8  4109.9  3042.2  2272.8  1673.1  1171  823.5  562.8
419.9  318.2  253.2  195.4  135.4  78.9  32.6
9426.1  9415  9944.8  10474.5  10992.4  10861.1  10599.5
10589.9  10587.5  10894.2  11069.9  11520.8  12596.7  14052.7
15333.2  15307.6  14665  13861.1  12491.6  10789.4  8897.1
7222.6  5075.9  3697.5  2882.3  2128.4  1555.6  1110.1  784.5
571.3  433  361.8  303.8  247.6  184.3  103.7  37
