IESNA:LM-63-2002
[TEST] 100711R1
[TESTDATE] 1/31/2008
[ISSUEDATE] 1/15/2014
[TESTLAB] ACUITY BRANDS LIGHTING GRANVILLE LAB
[TESTMETHOD] IES LM-46:2004
[MANUFAC] Lithonia Lighting
[LUMCAT] REVX 175M FWS T73 SCWA (CLEAR)
[LUMINAIRE] 2'X2' RECESSED SQUARE GENERAL AREA LIGHTING WITH FLUSH WHITE DOOR FRAME AND #T73 TEMPERED GLASS LENS
[LAMPCAT] MXR175/VBU/PA
[LAMP] 175W CLEAR PULSE-START METAL HALIDE
[BALLAST] 
[BALLASTCAT] 
[DISTRIBUTION] DIRECT, SC-0=1.97, SC-90=1.87
[_LAMPPOSITION] 0 , 0
[_LAMPTYPE] METAL HALIDE PULSE START (BELOW 250W)
[_LAMPWATTAGE] 175
[_LAMPLUMENS] 17000
[_MOUNTING] Recessed
[_FAMILY] REV
[_PRODUCTID] c12ab8f9-5dea-4793-87df-162744e798d1
[_INFOLINK] http://www.lithonia.com/photometrics.aspx?fid=138175
[OTHER] FLAT STEEL DOOR; CORNING 73 GLASS LENS; SPREAD RE-270
[_TERCAT] Highbay, Nonlinear                                
[_TER] 34
TILT=NONE
1  17000  1  37  5  1  1  2  2  0
1  1  198
0  2.5  5  7.5  10  12.5  15  17.5  20  22.5  25  27.5  30
32.5  35  37.5  40  42.5  45  47.5  50  52.5  55  57.5  60
62.5  65  67.5  70  72.5  75  77.5  80  82.5  85  87.5  90
0  22.5  45  67.5  90
3470.8  3473.6  3465.4  3428.4  3411.2  3428.2  3447.3  3539.3
3802  4194  4601.5  4934.1  5271.7  5639.4  5986.9  6130.2
5916.3  5354.4  4629.6  3934.1  3311.2  2759.5  2275.4  1866.7
1547  1299.8  1093.8  935.2  805  689.9  588.9  498.5  409
309.6  193.4  76.7  6.2
3470.8  3475.5  3477.9  3453.1  3438.9  3426.5  3431.7  3451.8
3573.3  3829.9  4162.7  4462  4712.3  4998.4  5294.3  5528.7
5475.7  4984.3  4320.2  3732  3226.6  2748.8  2307.5  1906.8
1559.2  1268.7  1039.8  891.3  781.9  688.4  594.7  500.5
405.1  301.3  192.3  82.1  7.3
3470.8  3471.4  3476.8  3459.7  3430.9  3375  3323.5  3289.5
3318.6  3435  3618.3  3790.1  3984  4219.1  4540.5  4825.6
4846.3  4642.1  4218.5  3703.7  3236.5  2822.7  2438.8  2067.9
1711.9  1381.5  1102.3  898.8  757.2  658.4  578.7  491
388.4  282.6  177.7  74.6  6.1
3470.8  3473.5  3484.9  3461.8  3429.7  3396.1  3384.5  3432.1
3589  3845.3  4124.2  4405.9  4706  5044  5319.3  5373.9
5046.3  4458.5  3831.6  3293.8  2790.7  2324.6  1928.5  1620.2
1388.5  1201.3  1042  889.8  747.7  635.7  556.6  482.4
389.9  287.4  185.1  78.5  7.3
3470.8  3478.2  3478  3446.8  3413.7  3396.3  3436.1  3594.6
3911  4344.9  4733.9  5054.5  5452.2  5807.1  5947  5780.7
5286.5  4591.1  3869  3222.8  2665.5  2240.3  1904.1  1658.3
1464.2  1249  1019  834.3  715.5  632.5  562.2  479.5  381.1
283.2  183.8  74.9  6.7
