IESNA:LM-63-2002
[TEST] 100704R1
[TESTDATE] 1/31/2008
[ISSUEDATE] 1/15/2014
[TESTLAB] ACUITY BRANDS LIGHTING GRANVILLE LAB
[TESTMETHOD] IES LM-46:2004
[MANUFAC] Lithonia Lighting
[LUMCAT] REVX 175M FWS A82/GL SCWA (COATED)
[LUMINAIRE] 2'X2' RECESSED SQUARE GENERAL AREA LIGHTING WITH FLUSH WHITE DOOR FRAME AND #8227 ACRYLIC LENS WITH TEMPERED GLASS OVERLAY
[LAMPCAT] MXR175/C/VBU/PA
[LAMP] 175W COATED PULSE-START METAL HALIDE
[BALLAST] 
[BALLASTCAT] 
[DISTRIBUTION] DIRECT, SC-0=1.81, SC-90=1.81
[_LAMPPOSITION] 0 , 0
[_LAMPTYPE] METAL HALIDE PULSE START (BELOW 250W)
[_LAMPWATTAGE] 175
[_LAMPLUMENS] 16000
[_MOUNTING] Recessed
[_FAMILY] REV
[_PRODUCTID] b2f0a04c-f77e-4d98-877d-80993edf131f
[_INFOLINK] http://www.lithonia.com/photometrics.aspx?fid=138175
[OTHER] FLAT STEEL DOOR; 8227 LENS W/TEMPERED GLASS; SPREAD RE-270
[_TERCAT] Highbay, Nonlinear                                
[_TER] 32
TILT=NONE
1  16000  1  37  5  1  1  2  2  0
1  1  198
0  2.5  5  7.5  10  12.5  15  17.5  20  22.5  25  27.5  30
32.5  35  37.5  40  42.5  45  47.5  50  52.5  55  57.5  60
62.5  65  67.5  70  72.5  75  77.5  80  82.5  85  87.5  90
0  22.5  45  67.5  90
3910.9  3923.5  3956.4  4015.1  4061.5  4011.8  3970.3  3876.2
3807.8  3751.9  3785.4  3909  4129.7  4458.8  4791.3  4947
4945.6  4791.8  4411.9  3889.7  3227.1  2497  1816.6  1323.3
975.2  719.5  526.3  373.1  260.3  184.3  137.5  106.8  83.4
63.9  45.9  27.6  9.5
3910.9  3914.7  3952.3  4052.2  4114.5  4063.9  4026.9  3974.7
3913  3828.9  3790.8  3824.3  3924  4143.7  4405.6  4653.9
4799.5  4847.1  4786.2  4540  4073.5  3256.7  2320.5  1581.2
1116.7  805.3  575.8  407.7  286.9  196.9  146.1  119  97.5
75.8  51.3  27  9.4
3910.9  3909.8  3977.2  4095.6  4174.8  4172.1  4076.4  3941.3
3796  3644.3  3507.6  3407.9  3343.6  3326.8  3375.5  3470.3
3598.1  3708.5  3782  3769  3394.5  2629.4  1930.7  1433.3
1045.5  757.4  544.6  390.2  282  203.5  149.3  117.7  93.9
71.8  47.7  25.1  9.9
3910.9  3922.2  4006.7  4146  4251  4277.1  4241.3  4157.5
4048.7  3926.8  3835.8  3855.9  4010.5  4258.4  4551.4  4815.8
4960.9  4974.4  4854.1  4496.4  3894.1  3069.2  2194.2  1511.8
1085  793.3  581.1  416.6  290.3  204.4  152.4  118.7  92.7
71.1  48.6  28  11.5
3910.9  3927  4024.8  4213.3  4351.4  4332.1  4278.5  4202.2
4098.8  4040.2  4029.5  4128.1  4329.1  4623.9  4893.3  4983
4951.8  4779.4  4351.8  3751.3  3077.9  2424.8  1809.1  1336.7
1004.6  744.1  545.1  391.7  280.5  203.6  154.8  129.3
108.9  88.4  63.6  35.1  12.9
