IESNA:LM-63-2002
[TEST] 100572R1
[TESTDATE] 1/31/2008
[ISSUEDATE] 1/15/2014
[TESTLAB] ACUITY BRANDS LIGHTING GRANVILLE LAB
[TESTMETHOD] IES LM-46:2004
[MANUFAC] Lithonia Lighting
[LUMCAT] REVX 400M FWS T73/PCL SCWA (COATED)
[LUMINAIRE] 2'X2' RECESSED SQUARE GENERAL AREA LIGHTING WITH FLUSH WHITE DOOR FRAME AND #T73 POLYCARBONATE LENS WITH TEMPERED GLASS OVERLAY
[LAMPCAT] MVR400/C/VBU/PA
[LAMP] 400W COATED PULSE-START METAL HALIDE
[BALLAST] 
[BALLASTCAT] 
[DISTRIBUTION] DIRECT, SC-0=1.63, SC-90=1.61
[_LAMPPOSITION] 0 , 0
[_LAMPTYPE] METAL HALIDE PULSE START (250W AND ABOVE)
[_LAMPWATTAGE] 400
[_LAMPLUMENS] 42000
[_MOUNTING] Recessed
[_FAMILY] REV
[_PRODUCTID] e439c7eb-fe7e-4ec2-863f-5ab0b1eb6aa6
[_INFOLINK] http://www.lithonia.com/photometrics.aspx?fid=138175
[OTHER] FLAT STEEL DOOR W/POLYCARBONATE SHIELD; CORNING 73 GLASS LENS; SPREAD RE-270
[_TERCAT] Highbay, Nonlinear                                
[_TER] 38
TILT=NONE
1  42000  1  37  5  1  1  2  2  0
1  1  442
0  2.5  5  7.5  10  12.5  15  17.5  20  22.5  25  27.5  30
32.5  35  37.5  40  42.5  45  47.5  50  52.5  55  57.5  60
62.5  65  67.5  70  72.5  75  77.5  80  82.5  85  87.5  90
0  22.5  45  67.5  90
10374.5  10397.8  10449.8  10491.5  10534.6  10605.3  10710.8
10866.8  11073.1  11313.2  11558.8  11797.5  11992.8  12122.5
12033.2  11640.6  10945.9  10002.3  8896.8  7777.9  6686.9
5623.5  4674.8  3857  3200.1  2678.3  2246.8  1884.1  1560.3
1257.3  978.5  720.8  489  285.6  123.5  35  6.9
10374.5  10372.2  10416.8  10418.9  10409.9  10433.4  10507.1
10654.3  10856.3  11116.7  11420.3  11694.1  11908.6  12023.1
11975.2  11694.5  11096.2  10168.8  9013.3  7854.5  6823.1
5850.8  4910.3  4060.6  3331.2  2717.5  2225.4  1859.4  1553.9
1274.2  1000.8  737  491.9  282.5  128.9  39.2  6.6
10374.5  10363  10387.8  10409.6  10424.8  10432  10472.8
10573.5  10748.3  11001.8  11270.1  11537.3  11760.5  11906.2
11886.7  11592.1  11033.3  10205.4  9160.8  8044.7  7003
6091.5  5265.8  4493.5  3737.2  3027.4  2417.9  1932.4  1558.8
1258.7  995.8  737  489.5  278.4  122.3  36.6  6.9
10374.5  10374.3  10395.5  10417.5  10447.3  10497.7  10593.3
10759  10985.5  11260.4  11549.7  11813.7  12010.7  12134.8
12090  11740.2  11051.6  10053.5  8856.8  7663.3  6533.8
5474.7  4526.6  3768  3173.8  2689.6  2273.9  1889.1  1531.9
1218.5  955.9  714  479.7  277.1  126.7  39.4  6.8
10374.5  10389.6  10381  10402.4  10446.2  10539.8  10689.4
10919.8  11205.4  11519.1  11828.2  12040.6  12188.2  12164.5
11949.2  11428.1  10602.1  9536.5  8311.4  7075.9  5915.6
4935.6  4200.1  3643.1  3170.6  2685.7  2200.4  1776.1  1451
1181.6  938.1  695  461.4  262.4  115.5  32.1  6.1
